,SHARES AND CERTIFICATES,,,,,,,,A Bonds,B Bonds,A Bonds,B Bonds,Reserve Fund,I. E. Loan,Sub. Loan,Participative Loan,I. E. Loan,Sub. Loan,Participative Loan,
Date,Balance Principal Interests,Defaults,,Interests
Reinv.
0,1255%,EURIBOR
Reference,(i),(ii),(iii),(iv),(v),(vi),(viii),(ix),(xi),(xii),(xiii),(xiv),(xv),(xvi),(xvii)
,,New
0,03%,Recup
75%,,,Expenses,Gestora,SWAP,Interests,Interests
Principal Principal
0,35%,,,Fondo de Reserva,Interests,Interest,FRPL,Amort.,Amort.,Amort.,VRPL
,,,,,,,,(1),0,12%,0,35%,,,Balance +Amort.,0,75%,0,75%,1,00%,,,,
14/03/2005
27/06/2005
26/09/2005
26/12/2005
27/03/2006
26/06/2006
26/09/2006
26/12/2006
26/03/2007
26/06/2007
26/09/2007
26/12/2007
26/03/2008
26/06/2008
26/09/2008
26/12/2008
26/03/2009
26/06/2009
28/09/2009
28/12/2009
26/03/2010
28/06/2010
27/09/2010
27/12/2010
28/03/2011
27/06/2011
26/09/2011
26/12/2011
26/03/2012
26/06/2012
26/09/2012
26/12/2012
26/03/2013
26/06/2013
26/09/2013
26/12/2013
26/03/2014
26/06/2014
26/09/2014
26/12/2014
26/03/2015
28/09/2015
28/12/2015
28/03/2016
27/06/2016
26/09/2016
26/12/2016
27/03/2017
26/06/2017
26/09/2017
26/12/2017,2.000.000.000
1.943.274.016 56.725.984 10.297.759
1.871.715.337 71.558.679 15.350.182
1.802.399.057 69.316.280 14.783.372
1.735.259.935 67.139.122 14.234.337
1.668.968.719 65.006.465 13.699.126
1.604.827.318 62.905.827 13.174.242
1.542.769.778 60.869.547 12.666.390
1.482.734.246 58.893.574 12.175.052
1.424.660.071 56.976.751 11.699.738
1.368.489.897 55.115.826 11.239.967
1.314.166.177 53.311.035 10.795.285
1.261.648.803 51.544.979 10.365.243
1.210.911.436 49.803.911 9.949.645
1.161.876.669 48.138.935 9.548.062
1.114.506.897 46.510.297 9.160.016
1.068.741.138 44.941.408 8.785.131
1.024.539.154 43.411.564 8.422.969
981.859.419 41.922.085 8.073.210
940.664.346 40.469.056 7.735.580
900.899.436 39.069.432 7.409.662
862.524.956 37.708.474 7.095.111
825.497.079 36.390.314 6.791.560
789.787.275 35.099.680 6.498.741
755.349.405 33.854.209 6.216.367
722.144.124 32.647.137 5.944.106
690.129.412 31.481.174 5.681.585
659.301.864 30.317.722 5.428.618
629.602.854 29.212.020 5.184.993
600.994.740 28.143.124 4.950.305
573.448.989 27.101.950 4.724.276
546.938.315 26.087.271 4.506.683
521.417.775 25.116.771 4.297.271
496.863.430 24.169.473 4.095.708
473.270.982 23.225.753 3.901.856
450.655.057 22.266.678 3.715.758
428.974.820 21.347.715 3.537.376
408.198.708 20.459.625 3.366.368
388.308.723 19.588.855 3.202.595
369.214.793 18.807.515 3.045.695
350.877.293 18.065.215 2.895.053
316.368.061 16.655.375 2.611.541
300.157.142 15.977.732 2.478.311
284.600.826 15.335.123 2.350.492
269.678.255 14.712.886 2.227.874
255.368.048 14.111.559 2.110.278
241.647.676 13.532.307 1.997.548
228.477.381 12.992.382 1.889.406
215.839.901 12.469.310 1.785.630
0 215.681.079 2.016.800
0 0 0,0
0
0
0
1.284.751
1.235.574
1.187.992
1.141.958
1.097.425
1.054.348
1.012.685
972.394
933.456
895.831
859.475
824.351
790.420
757.650
726.016
695.479
666.006
637.563
610.124
583.661
558.144
533.538
509.827
486.990
464.990
443.802
423.403
403.769
384.871
366.696
349.247
332.521
316.487
301.130
286.415
272.286
245.688
233.188
221.193
209.685
198.648
188.065
177.913
168.170
158.822
0,0
0
0
0
0
0
0
0
161.288
396.009
621.710
838.683
1.030.376
1.171.029
1.260.905
1.301.917
1.297.501
1.256.307
1.188.219
1.102.751
1.008.921
914.439
825.176
745.187
676.796
620.776
576.681
543.186
518.416
500.255
486.591
475.512
465.417
455.087
443.697
430.794
416.236
400.133
382.773
364.553
327.272
309.016
291.443
274.767
259.115
244.537
231.021
218.502
206.885
0,313.725
336.110
326.308
313.468
312.442
309.590
294.998
282.540
287.640
279.900
271.086
263.896
263.211
259.826
248.419
236.391
240.308
246.089
233.712
211.625
219.809
204.998
195.551
189.107
180.572
172.237
164.271
154.631
152.496
145.471
137.961
129.572
127.749
123.099
118.853
112.156
114.271
112.401
107.420
102.282
105.930
101.177
98.664
95.655
93.268
91.028
88.340
87.677
164.757
0,,2.105.600
7.055
7.578
7.693
7.805
7.913
8.173
8.122
8.080
8.455
8.543
8.502
8.590
8.790
8.867
8.834
8.808
9.083
9.339
9.124
8.930
9.503
9.316
9.375
9.433
9.488
9.541
9.593
9.642
9.748
9.792
9.781
9.773
9.912
9.949
9.942
9.936
10.052
10.084
10.078
10.075
10.259
10.194
10.220
10.245
10.269
10.292
10.314
10.335
10.375
0,109.315
92.306
88.906
85.614
82.425
79.276
76.229
73.282
70.430
67.671
65.003
62.423
59.928
57.518
55.189
52.939
50.765
48.666
46.638
44.682
42.793
40.970
39.211
37.515
35.879
34.302
32.781
31.317
29.906
28.547
27.239
25.980
24.767
23.601
22.480
21.406
20.376
19.389
18.445
17.538
15.830
15.027
14.257
13.519
12.810
12.130
11.478
10.853
10.252
0,-80.716
-1.048.483
-1.008.296
-969.370
-931.433
-894.226
-858.226
-823.398
-789.705
-757.113
-725.590
-695.104
-665.643
-637.177
-609.668
-583.096
-557.423
-532.633
-508.712
-485.626
-463.350
-441.861
-421.145
-401.196
-381.989
-363.477
-345.651
-328.492
-311.974
-296.070
-280.769
-266.058
-251.908
-238.300
-225.235
-212.721
-200.725
-189.245
-178.267
-167.748
-148.003
-138.745
-129.879
-121.386
-113.252
-105.468
-98.010
-90.862
-100.470
0,12.838.499
10.803.344
10.395.376
10.000.291
9.617.699
9.341.296
8.874.182
8.426.784
8.268.086
7.933.318
7.526.912
7.217.325
6.994.016
6.701.606
6.349.270
6.012.355
5.882.352
5.750.006
5.323.104
4.920.602
5.021.910
4.642.832
4.431.821
4.228.227
4.032.051
3.842.707
3.660.195
3.484.515
3.351.584
3.186.835
2.995.149
2.812.832
2.728.115
2.586.790
2.424.189
2.269.981
2.195.414
2.075.757
1.939.898
1.810.870
1.679.696
1.529.782
1.437.258
1.348.637
1.263.530
1.181.936
1.103.856
1.028.704
967.216
0,347.899
301.512
301.512
301.512
301.512
304.829
301.512
298.200
304.829
304.829
301.512
301.512
304.829
304.829
301.512
298.200
304.829
311.453
301.512
291.571
311.453
301.512
301.512
301.512
301.512
301.512
301.512
301.512
304.829
304.829
301.512
298.200
304.829
304.829
301.512
298.200
304.829
304.829
301.512
298.200
311.453
301.512
301.512
301.512
301.512
301.512
301.512
301.512
304.829
0,-1.952.000.000 -48.000.000
56.725.984 0
71.558.679 0
69.316.280 0
67.139.122 0
66.291.216 0
64.141.401 0
62.057.540 0
60.035.532 0
58.074.175 0
56.170.174 0
54.323.720 0
52.517.374 0
50.737.367 0
49.034.767 0
47.369.772 0
45.765.759 0
44.201.984 0
42.679.735 0
41.195.072 0
39.764.910 0
38.374.480 0
37.027.877 0
35.709.804 0
34.437.870 0
33.205.281 0
32.014.712 0
30.827.548 0
29.699.010 0
28.608.114 0
27.545.751 0
26.510.674 0
25.520.541 0
24.554.344 0
23.592.448 0
22.615.925 0
21.680.237 0
20.776.112 0
19.889.985 0
19.093.930 0
18.337.500 0
16.901.064 0
16.210.920 0
15.556.316 0
14.922.571 0
14.310.206 0
13.720.372 0
13.170.295 0
12.637.480 0
167.839.901 48.000.000
0 0,,20.000.000
20.000.000 0
20.000.000 0
20.000.000 0
20.000.000 0
20.000.000 0
20.000.000 0
20.000.000 0
20.000.000 0
20.000.000 0
20.000.000 0
20.000.000 0
20.000.000 0
20.000.000 0
20.000.000 0
20.000.000 0
20.000.000 0
20.000.000 0
19.637.188 362.812
18.813.287 823.901
18.017.989 795.298
17.250.499 767.490
16.509.942 740.558
15.795.746 714.196
15.106.988 688.757
14.442.882 664.106
13.802.588 640.294
13.186.037 616.551
12.592.057 593.980
12.019.895 572.162
11.468.980 550.915
10.938.766 530.213
10.428.355 510.411
10.000.000 428.355
10.000.000 0
10.000.000 0
10.000.000 0
10.000.000 0
10.000.000 0
10.000.000 0
10.000.000 0
10.000.000 0
10.000.000 0
10.000.000 0
10.000.000 0
10.000.000 0
10.000.000 0
10.000.000 0
10.000.000 0
0 10.000.000
0 0,17.717,75
14.587,61
13.819,84
13.052,07
12.284,30
11.643,09
10.748,77
9.871,32
9.314,47
8.538,27
7.677,69
6.909,92
6.209,65
5.433,44
4.606,61
3.796,66
3.104,82
2.379,24
1.535,54
742,46
0,00
0,00
0,00
0,00
0,00
0,00
0,00
0,00
0,00
0,00
0,00
0,00
0,00
0,00
0,00
0,00
0,00
0,00
0,00
0,00
0,00
0,00
0,00
0,00
0,00
0,00
0,00
0,00
0,00
0,00,1.443
22.456
0
0
0
0
0
0
0
0
0
0
0
0
0
0
0
0
0
0
0
0
0
0
0
0
0
0
0
0
0
0
0
0
0
0
0
0
0
0
0
0
0
0
0
0
0
0
0
0,182.875
158.492
158.492
158.492
158.492
160.233
158.492
156.750
160.233
160.233
158.492
158.492
160.233
160.233
158.492
156.750
160.233
163.717
155.617
144.172
147.492
136.703
130.834
125.175
119.717
114.454
109.380
104.494
100.883
96.299
90.887
85.733
83.549
80.117
79.246
78.375
80.117
80.117
79.246
78.375
81.858
79.246
79.246
79.246
79.246
79.246
79.246
79.246
80.117
0,-2.105.600
105.280
105.280
105.280
105.280
105.280
105.280
105.280
105.280
105.280
105.280
105.280
105.280
105.280
105.280
105.280
105.280
105.280
105.280
105.280
105.280
0
0
0
0
0
0
0
0
0
0
0
0
0
0
0
0
0
0
0
0
0
0
0
0
0
0
0
0
0
0,2.920.684
3.079.316
0
0
0
0
0
0
0
0
0
0
0
0
0
0
0
0
0
0
0
0
0
0
0
0
0
0
0
0
0
0
0
0
0
0
0
0
0
0
0
0
0
0
0
0
0
0
0
0,-20.000.000
0
0
0
0
0
0
0
0
0
0
0
0
0
0
0
0
0
362.812
823.901
795.298
767.490
740.558
714.196
688.757
664.106
640.294
616.551
593.980
572.162
550.915
530.213
510.411
428.355
0
0
0
0
0
0
0
0
0
0
0
0
0
0
0
10.000.000
0,
,,,,,,,,,,,,,,,,,,,,
,,,,,2,135%,,,,,,,,,,,,,,,-
,,,,,2,135%,,,,,,,,,,,,,,,5 2.939
,,,,,2,135%,,,,,,,,,,,,,,,3.030.305
,,,,,2,135%,,,,,,,,,,,,,,,2.906.389
,,,,,2,135%,,,,,,,,,,,,,,,1.509.779
,,,,,2,135%,,,,,,,,,,,,,,,1.343.302
,,,,,2,135%,,,,,,,,,,,,,,,1.380.603
,,,,,2,135%,,,,,,,,,,,,,,,1.413.990
,,,,,2,135%,,,,,,,,,,,,,,,1.334.908
,,,,,2,135%,,,,,,,,,,,,,,,1.516.001
,,,,,2,135%,,,,,,,,,,,,,,,1.776.428
,,,,,2,135%,,,,,,,,,,,,,,,1.939.794
,,,,,2,135%,,,,,,,,,,,,,,,2.004.846
,,,,,2,135%,,,,,,,,,,,,,,,2.102.142
,,,,,2,135%,,,,,,,,,,,,,,,2.217.013
,,,,,2,135%,,,,,,,,,,,,,,,2.277.862
,,,,,2,135%,,,,,,,,,,,,,,,2.097.287
,,,,,2,135%,,,,,,,,,,,,,,,1.894.484
,,,,,2,135%,,,,,,,,,,,,,,,1.979.972
,,,,,2,135%,,,,,,,,,,,,,,,2.026.956
,,,,,2,135%,,,,,,,,,,,,,,,1.661.334
,,,,,2,135%,,,,,,,,,,,,,,,1.700.241
,,,,,2,135%,,,,,,,,,,,,,,,1.575.445
,,,,,2,135%,,,,,,,,,,,,,,,1.463.942
,,,,,2,135%,,,,,,,,,,,,,,,1.362.694
,,,,,2,135%,,,,,,,,,,,,,,,1.275.067
,,,,,2,135%,,,,,,,,,,,,,,,1.200.631
,,,,,2,135%,,,,,,,,,,,,,,,1.135.847
,,,,,2,135%,,,,,,,,,,,,,,,1.047.302
,,,,,2,135%,,,,,,,,,,,,,,,1.003.828
,,,,,2,135%,,,,,,,,,,,,,,,1.002.496
,,,,,2,135%
2,135%
2,135%
2,135%
2,135%
2,135%
2,135%
2,135%
2,135%
2,135%
2,135%
2,135%
2,135%
2,135%
2,135%
2,135%
2,135%
2,135%
2,135%,,,,,,,,,,,,,,,1.000.011
900.922
869.759
866.457
857.186
768.876
734.579
722.027
706.797
551.954
580.810
547.035
514.067
483.396
454.465
426.438
402.128
756.361
-
Total 1.973.538.639 336.863.263,,26.461.361,25.585.788,9.526.456,,465.973,2.076.471,-21.331.557,236.184.192,15.171.744,1.952.000.000,48.000.000,20.000.000,163.974,23.899,5.986.548,2.105.600,6.000.000,20.000.000,62.003.520
